Freq	Power
[Hz]	[dB]
0.000	1.613
2.441	-1.397
4.883	-109.346
7.324	-115.130
9.766	-110.953
12.207	-112.305
14.648	-104.324
17.090	-108.158
19.531	-98.849
21.973	-92.722
24.414	-96.390
26.855	-120.644
29.297	-113.922
31.738	-110.801
34.180	-102.528
36.621	-101.422
39.062	-99.002
41.504	-104.041
43.945	-120.853
46.387	-102.006
48.828	-110.575
51.270	-109.975
53.711	-103.122
56.152	-101.546
58.594	-100.757
61.035	-98.452
63.477	-105.523
65.918	-105.078
68.359	-109.077
70.801	-112.333
73.242	-102.547
75.684	-109.850
78.125	-101.303
80.566	-96.505
83.008	-102.948
85.449	-114.245
87.891	-99.686
90.332	-101.039
92.773	-101.442
95.215	-95.591
97.656	-94.751
100.098	-96.539
102.539	-95.549
104.980	-106.910
107.422	-113.267
109.863	-101.644
112.305	-94.358
114.746	-108.136
117.187	-108.778
119.629	-103.631
122.070	-105.940
124.512	-111.983
126.953	-97.819
129.395	-108.338
131.836	-104.635
134.277	-102.565
136.719	-99.859
139.160	-92.425
141.602	-91.319
144.043	-113.621
146.484	-107.566
148.926	-92.918
151.367	-98.595
153.809	-90.180
156.250	-102.854
158.691	-93.126
161.133	-96.117
163.574	-89.618
166.016	-89.396
168.457	-89.571
170.898	-85.196
173.340	-84.034
175.781	-81.240
178.223	-77.814
180.664	-75.824
183.105	-71.937
185.547	-67.490
187.988	-62.605
190.430	-56.607
192.871	-48.376
195.312	-35.790
197.754	-4.545
200.195	0.453
202.637	-6.632
205.078	-38.347
207.520	-49.890
209.961	-57.618
212.402	-63.624
214.844	-68.240
217.285	-72.670
219.727	-75.345
222.168	-79.019
224.609	-81.614
227.051	-85.387
229.492	-84.483
231.934	-90.054
234.375	-89.749
236.816	-92.015
239.258	-95.941
241.699	-91.973
244.141	-96.151
246.582	-99.692
249.023	-96.145
251.465	-107.463
253.906	-98.641
256.348	-99.165
258.789	-106.979
261.230	-101.147
263.672	-101.949
266.113	-106.095
268.555	-97.907
270.996	-105.256
273.437	-105.832
275.879	-98.803
278.320	-105.557
280.762	-98.312
283.203	-96.316
285.645	-100.606
288.086	-99.320
290.527	-100.998
292.969	-123.291
295.410	-103.945
297.852	-98.146
300.293	-100.227
302.734	-100.971
305.176	-123.112
307.617	-105.698
310.059	-105.207
312.500	-114.778
314.941	-106.766
317.383	-100.175
319.824	-102.346
322.266	-97.424
324.707	-100.199
327.148	-92.796
329.590	-97.752
332.031	-94.916
334.473	-104.791
336.914	-95.751
339.355	-98.125
341.797	-100.443
344.238	-96.717
346.680	-109.875
349.121	-93.323
351.562	-99.570
354.004	-91.594
356.445	-91.292
358.887	-94.477
361.328	-89.016
363.770	-87.251
366.211	-86.150
368.652	-83.922
371.094	-82.099
373.535	-80.052
375.977	-76.576
378.418	-74.471
380.859	-71.072
383.301	-67.699
385.742	-63.255
388.184	-58.371
390.625	-52.050
393.066	-43.678
395.508	-30.468
397.949	-5.486
400.391	-1.478
402.832	-9.682
405.273	-35.598
407.715	-46.671
410.156	-54.265
412.598	-60.075
415.039	-64.718
417.480	-68.739
419.922	-72.144
422.363	-75.273
424.805	-78.410
427.246	-78.878
429.687	-85.681
432.129	-83.279
434.570	-85.919
437.012	-90.550
439.453	-88.110
441.895	-94.171
444.336	-92.999
446.777	-93.721
449.219	-95.756
451.660	-95.748
454.102	-97.385
456.543	-97.179
458.984	-99.197
461.426	-116.085
463.867	-95.642
466.309	-99.789
468.750	-100.843
471.191	-96.568
473.633	-104.799
476.074	-98.256
478.516	-101.478
480.957	-104.002
483.398	-118.268
485.840	-104.820
488.281	-106.669
490.723	-115.312
493.164	-101.638
495.605	-98.220
498.047	-96.183
500.488	-100.341
502.930	-97.560
505.371	-104.090
507.812	-105.690
510.254	-109.332
512.695	-98.491
515.137	-99.229
517.578	-101.414
520.020	-102.716
522.461	-96.504
524.902	-102.162
527.344	-97.421
529.785	-115.421
532.227	-99.159
534.668	-103.370
537.109	-95.933
539.551	-109.919
541.992	-93.924
544.434	-104.644
546.875	-93.325
549.316	-98.574
551.758	-93.860
554.199	-98.020
556.641	-92.786
559.082	-90.522
561.523	-91.688
563.965	-87.463
566.406	-85.425
568.848	-85.561
571.289	-81.917
573.730	-79.579
576.172	-77.650
578.613	-74.479
581.055	-71.219
583.496	-67.725
585.937	-63.412
588.379	-58.326
590.820	-51.942
593.262	-43.296
595.703	-29.407
598.145	-8.194
600.586	-5.152
603.027	-14.541
605.469	-37.149
607.910	-47.811
610.352	-55.223
612.793	-60.917
615.234	-65.555
617.676	-69.332
620.117	-72.932
622.559	-76.238
625.000	-78.116
627.441	-81.419
629.883	-83.078
632.324	-85.153
634.766	-87.955
637.207	-88.215
639.648	-91.505
642.090	-92.370
644.531	-90.695
646.973	-100.911
649.414	-93.130
651.855	-104.219
654.297	-95.103
656.738	-99.990
659.180	-102.609
661.621	-96.184
664.062	-114.178
666.504	-100.319
668.945	-102.622
671.387	-108.665
673.828	-100.288
676.270	-122.385
678.711	-101.487
681.152	-105.783
683.594	-99.451
686.035	-110.307
688.477	-111.507
690.918	-102.884
693.359	-106.482
695.801	-109.355
698.242	-97.322
700.684	-95.079
703.125	-105.440
705.566	-104.980
708.008	-103.253
710.449	-101.850
712.891	-101.691
715.332	-98.915
717.773	-98.841
720.215	-114.027
722.656	-114.118
725.098	-104.190
727.539	-102.130
729.980	-107.874
732.422	-106.637
734.863	-107.171
737.305	-103.557
739.746	-104.067
742.187	-100.810
744.629	-99.614
747.070	-113.274
749.512	-100.431
751.953	-101.873
754.395	-97.235
756.836	-95.402
759.277	-95.611
761.719	-96.248
764.160	-91.146
766.602	-92.040
769.043	-88.109
771.484	-87.744
773.926	-83.510
776.367	-82.534
778.809	-78.286
781.250	-76.979
783.691	-71.722
786.133	-67.844
788.574	-62.776
791.016	-56.139
793.457	-47.257
795.898	-32.601
798.340	-14.138
800.781	-12.043
803.223	-22.701
805.664	-43.043
808.105	-53.287
810.547	-60.498
812.988	-66.280
815.430	-70.555
817.871	-74.610
820.312	-77.632
822.754	-81.544
825.195	-83.238
827.637	-86.363
830.078	-88.214
832.520	-88.794
834.961	-92.843
837.402	-97.124
839.844	-90.238
842.285	-100.627
844.727	-97.233
847.168	-108.591
849.609	-95.743
852.051	-96.364
854.492	-100.003
856.934	-97.826
859.375	-127.177
861.816	-99.992
864.258	-108.229
866.699	-111.925
869.141	-108.219
871.582	-110.093
874.023	-98.527
876.465	-105.487
878.906	-101.116
881.348	-104.537
883.789	-119.324
886.230	-96.856
888.672	-99.178
891.113	-102.736
893.555	-102.175
895.996	-100.353
898.437	-98.284
900.879	-112.525
903.320	-101.549
905.762	-100.792
908.203	-102.674
910.645	-119.004
913.086	-102.186
915.527	-98.150
917.969	-97.793
920.410	-101.541
922.852	-105.173
925.293	-110.163
927.734	-104.453
930.176	-107.062
932.617	-106.152
935.059	-108.746
937.500	-102.236
939.941	-99.855
942.383	-105.156
944.824	-95.741
947.266	-95.798
949.707	-101.456
952.148	-98.762
954.590	-99.601
957.031	-103.435
959.473	-111.346
961.914	-101.970
964.355	-105.475
966.797	-103.670
969.238	-99.453
971.680	-102.984
974.121	-106.708
976.562	-108.139
979.004	-111.351
981.445	-112.378
983.887	-121.785
986.328	-114.792
988.770	-107.011
991.211	-108.058
993.652	-97.863
996.094	-96.539
998.535	-89.358
1000.977	-87.877
1003.418	-95.803
1005.859	-105.125
1008.301	-103.817
1010.742	-96.143
1013.184	-99.189
1015.625	-107.202
1018.066	-103.231
1020.508	-100.801
1022.949	-101.913
1025.391	-108.207
1027.832	-103.110
1030.273	-112.170
1032.715	-102.150
1035.156	-98.607
1037.598	-96.954
1040.039	-101.664
1042.480	-100.674
1044.922	-106.759
1047.363	-99.170
1049.805	-103.043
1052.246	-102.506
1054.687	-105.476
1057.129	-105.913
1059.570	-103.897
1062.012	-113.563
1064.453	-108.951
1066.895	-106.670
1069.336	-106.500
1071.777	-110.596
1074.219	-108.861
1076.660	-110.011
1079.102	-108.826
1081.543	-97.196
1083.984	-102.667
1086.426	-112.773
1088.867	-100.882
1091.309	-105.767
1093.750	-93.277
1096.191	-99.049
1098.633	-95.555
1101.074	-98.366
1103.516	-102.746
1105.957	-100.177
1108.398	-101.946
1110.840	-121.964
1113.281	-103.339
1115.723	-101.847
1118.164	-104.500
1120.605	-104.410
1123.047	-102.925
1125.488	-109.798
1127.930	-101.690
1130.371	-104.845
1132.812	-101.048
1135.254	-103.383
1137.695	-111.669
1140.137	-98.132
1142.578	-98.945
1145.020	-120.891
1147.461	-102.819
1149.902	-99.466
1152.344	-100.369
1154.785	-98.269
1157.227	-94.804
1159.668	-98.275
1162.109	-106.792
1164.551	-90.626
1166.992	-96.457
1169.434	-88.959
1171.875	-87.998
1174.316	-86.847
1176.758	-82.972
1179.199	-81.275
1181.641	-76.762
1184.082	-73.508
1186.523	-69.108
1188.965	-63.701
1191.406	-56.856
1193.848	-47.446
1196.289	-30.815
1198.730	-16.413
1201.172	-16.182
1203.613	-29.752
1206.055	-46.950
1208.496	-56.596
1210.937	-63.418
1213.379	-68.917
1215.820	-73.399
1218.262	-76.778
1220.703	-80.921
1223.145	-83.209
1225.586	-85.735
1228.027	-88.304
1230.469	-90.766
1232.910	-91.139
1235.352	-96.505
1237.793	-94.945
1240.234	-95.233
1242.676	-101.557
1245.117	-95.823
1247.559	-102.908
1250.000	-107.921
1252.441	-99.708
1254.883	-100.350
1257.324	-102.646
1259.766	-109.564
1262.207	-99.333
1264.648	-105.113
1267.090	-97.936
1269.531	-99.757
1271.973	-103.031
1274.414	-104.501
1276.855	-97.795
1279.297	-97.932
1281.738	-99.707
1284.180	-105.057
1286.621	-111.111
1289.062	-101.194
1291.504	-105.528
1293.945	-99.589
1296.387	-97.558
1298.828	-94.887
1301.270	-102.276
1303.711	-111.407
1306.152	-108.629
1308.594	-103.645
1311.035	-115.546
1313.477	-104.518
1315.918	-105.797
1318.359	-119.393
1320.801	-106.211
1323.242	-109.013
1325.684	-104.073
1328.125	-103.266
1330.566	-135.891
1333.008	-100.207
1335.449	-101.887
1337.891	-101.781
1340.332	-100.103
1342.773	-101.437
1345.215	-111.645
1347.656	-98.166
1350.098	-98.617
1352.539	-102.459
1354.980	-94.148
1357.422	-98.414
1359.863	-91.969
1362.305	-96.704
1364.746	-92.180
1367.187	-88.272
1369.629	-87.783
1372.070	-86.007
1374.512	-82.680
1376.953	-80.694
1379.395	-77.342
1381.836	-74.172
1384.277	-70.398
1386.719	-65.972
1389.160	-60.387
1391.602	-53.501
1394.043	-43.694
1396.484	-25.838
1398.926	-13.054
1401.367	-13.749
1403.809	-29.044
1406.250	-45.108
1408.691	-54.438
1411.133	-61.107
1413.574	-66.610
1416.016	-70.907
1418.457	-73.978
1420.898	-79.625
1423.340	-79.099
1425.781	-84.308
1428.223	-86.460
1430.664	-86.079
1433.105	-92.834
1435.547	-89.671
1437.988	-92.378
1440.430	-97.208
1442.871	-98.919
1445.312	-94.351
1447.754	-103.869
1450.195	-96.165
1452.637	-109.205
1455.078	-97.388
1457.520	-109.807
1459.961	-97.803
1462.402	-103.528
1464.844	-108.287
1467.285	-115.688
1469.727	-101.287
1472.168	-103.420
1474.609	-100.308
1477.051	-101.630
1479.492	-105.343
1481.934	-103.964
1484.375	-110.717
1486.816	-107.733
1489.258	-106.017
1491.699	-110.928
1494.141	-107.873
1496.582	-104.993
1499.023	-98.740
1501.465	-101.130
1503.906	-112.694
1506.348	-102.901
1508.789	-101.529
1511.230	-111.442
1513.672	-104.598
1516.113	-102.277
1518.555	-100.542
1520.996	-112.262
1523.437	-103.216
1525.879	-109.717
1528.320	-103.980
1530.762	-101.404
1533.203	-99.484
1535.645	-102.259
1538.086	-99.788
1540.527	-105.207
1542.969	-100.858
1545.410	-102.087
1547.852	-95.315
1550.293	-110.615
1552.734	-94.530
1555.176	-99.939
1557.617	-104.666
1560.059	-94.421
1562.500	-93.962
1564.941	-91.565
1567.383	-90.229
1569.824	-91.728
1572.266	-85.666
1574.707	-85.162
1577.148	-82.148
1579.590	-78.765
1582.031	-75.784
1584.473	-71.896
1586.914	-67.330
1589.355	-61.670
1591.797	-54.628
1594.238	-44.496
1596.680	-25.093
1599.121	-13.759
1601.562	-15.385
1604.004	-32.692
1606.445	-47.789
1608.887	-56.810
1611.328	-63.433
1613.770	-68.596
1616.211	-73.117
1618.652	-76.328
1621.094	-80.570
1623.535	-82.157
1625.977	-85.939
1628.418	-88.123
1630.859	-87.363
1633.301	-96.920
1635.742	-89.842
1638.184	-108.327
1640.625	-92.407
1643.066	-98.220
1645.508	-97.538
1647.949	-114.182
1650.391	-99.116
1652.832	-103.128
1655.273	-103.059
1657.715	-108.450
1660.156	-106.049
1662.598	-103.825
1665.039	-101.668
1667.480	-99.029
1669.922	-110.074
1672.363	-103.825
1674.805	-99.317
1677.246	-100.313
1679.687	-101.738
1682.129	-100.099
1684.570	-101.522
1687.012	-104.849
1689.453	-105.856
1691.895	-106.517
1694.336	-103.154
1696.777	-104.886
1699.219	-102.912
1701.660	-103.295
1704.102	-109.822
1706.543	-107.238
1708.984	-111.357
1711.426	-103.608
1713.867	-99.087
1716.309	-103.988
1718.750	-108.331
1721.191	-106.043
1723.633	-108.638
1726.074	-120.129
1728.516	-109.626
1730.957	-102.710
1733.398	-119.105
1735.840	-103.849
1738.281	-102.266
1740.723	-102.633
1743.164	-96.219
1745.605	-103.020
1748.047	-106.890
1750.488	-105.162
1752.930	-109.522
1755.371	-102.246
1757.812	-106.269
1760.254	-103.141
1762.695	-101.697
1765.137	-106.517
1767.578	-94.012
1770.020	-95.754
1772.461	-94.306
1774.902	-89.970
1777.344	-89.445
1779.785	-84.779
1782.227	-81.981
1784.668	-78.160
1787.109	-73.121
1789.551	-67.883
1791.992	-60.403
1794.434	-49.975
1796.875	-28.581
1799.316	-18.571
1801.758	-21.138
1804.199	-40.882
1806.641	-55.137
1809.082	-64.020
1811.523	-70.166
1813.965	-75.621
1816.406	-80.144
1818.848	-82.780
1821.289	-86.899
1823.730	-90.302
1826.172	-90.377
1828.613	-94.026
1831.055	-103.461
1833.496	-92.439
1835.937	-104.859
1838.379	-97.797
1840.820	-94.942
1843.262	-101.430
1845.703	-97.258
1848.145	-111.523
1850.586	-104.042
1853.027	-94.821
1855.469	-96.506
1857.910	-97.555
1860.352	-103.844
1862.793	-105.630
1865.234	-100.008
1867.676	-102.745
1870.117	-109.370
1872.559	-102.338
1875.000	-103.389
1877.441	-114.769
1879.883	-105.876
1882.324	-102.284
1884.766	-103.577
1887.207	-114.319
1889.648	-112.725
1892.090	-101.314
1894.531	-96.928
1896.973	-107.379
1899.414	-104.848
1901.855	-105.351
1904.297	-100.112
1906.738	-103.670
1909.180	-102.798
1911.621	-102.856
1914.062	-104.566
1916.504	-106.498
1918.945	-107.435
1921.387	-109.972
1923.828	-113.780
1926.270	-110.648
1928.711	-109.498
1931.152	-100.344
1933.594	-103.293
1936.035	-106.622
1938.477	-103.518
1940.918	-112.580
1943.359	-115.337
1945.801	-100.336
1948.242	-100.748
1950.684	-112.054
1953.125	-115.328
1955.566	-102.761
1958.008	-104.216
1960.449	-100.557
1962.891	-104.560
1965.332	-111.665
1967.773	-99.294
1970.215	-97.608
1972.656	-101.137
1975.098	-102.544
1977.539	-105.118
1979.980	-101.731
1982.422	-103.034
1984.863	-108.698
1987.305	-108.447
1989.746	-118.237
1992.187	-104.507
1994.629	-109.276
1997.070	-100.936
1999.512	-92.913
2001.953	-95.566
2004.395	-101.047
2006.836	-102.531
2009.277	-110.655
2011.719	-111.030
2014.160	-103.019
2016.602	-105.498
2019.043	-108.810
2021.484	-108.305
2023.926	-98.255
2026.367	-97.809
2028.809	-99.956
2031.250	-100.113
2033.691	-108.366
2036.133	-96.005
2038.574	-93.949
2041.016	-102.452
2043.457	-101.929
2045.898	-101.353
2048.340	-101.386
2050.781	-96.502
2053.223	-92.641
2055.664	-95.430
2058.105	-107.246
2060.547	-102.191
2062.988	-105.983
2065.430	-105.503
2067.871	-100.703
2070.312	-105.810
2072.754	-106.747
2075.195	-102.355
2077.637	-108.614
2080.078	-104.934
2082.520	-100.370
2084.961	-101.637
2087.402	-106.340
2089.844	-114.058
2092.285	-115.719
2094.727	-110.378
2097.168	-108.625
2099.609	-106.405
2102.051	-105.930
2104.492	-102.704
2106.934	-99.985
2109.375	-103.501
2111.816	-117.922
2114.258	-129.225
2116.699	-103.688
2119.141	-98.557
2121.582	-99.944
2124.023	-106.286
2126.465	-110.615
2128.906	-102.583
2131.348	-118.838
2133.789	-103.568
2136.230	-103.115
2138.672	-108.693
2141.113	-100.408
2143.555	-102.238
2145.996	-103.103
2148.437	-100.574
2150.879	-99.841
2153.320	-100.441
2155.762	-103.056
2158.203	-111.896
2160.645	-109.375
2163.086	-98.164
2165.527	-113.989
2167.969	-111.494
2170.410	-104.432
2172.852	-99.892
2175.293	-96.279
2177.734	-97.497
2180.176	-91.930
2182.617	-87.474
2185.059	-86.453
2187.500	-80.855
2189.941	-74.127
2192.383	-67.175
2194.824	-55.653
2197.266	-27.352
2199.707	-19.717
2202.148	-24.217
2204.590	-51.805
2207.031	-64.856
2209.473	-72.741
2211.914	-79.179
2214.355	-84.504
2216.797	-88.093
2219.238	-93.065
2221.680	-92.442
2224.121	-101.006
2226.562	-96.113
2229.004	-99.772
2231.445	-109.325
2233.887	-104.027
2236.328	-96.090
2238.770	-94.443
2241.211	-99.837
2243.652	-104.048
2246.094	-105.061
2248.535	-103.039
2250.977	-95.396
2253.418	-86.885
2255.859	-90.440
2258.301	-109.124
2260.742	-109.995
2263.184	-103.573
2265.625	-103.743
2268.066	-113.188
2270.508	-120.052
2272.949	-118.869
2275.391	-107.628
2277.832	-108.347
2280.273	-114.419
2282.715	-107.024
2285.156	-100.998
2287.598	-99.145
2290.039	-100.810
2292.480	-101.509
2294.922	-104.236
2297.363	-103.313
2299.805	-103.976
2302.246	-117.470
2304.687	-102.263
2307.129	-97.856
2309.570	-101.575
2312.012	-110.862
2314.453	-115.400
2316.895	-105.579
2319.336	-101.558
2321.777	-109.971
2324.219	-115.763
2326.660	-100.717
2329.102	-108.026
2331.543	-103.787
2333.984	-111.841
2336.426	-117.093
2338.867	-106.896
2341.309	-96.315
2343.750	-94.746
2346.191	-107.335
2348.633	-98.809
2351.074	-111.274
2353.516	-102.614
2355.957	-109.957
2358.398	-102.772
2360.840	-96.708
2363.281	-110.856
2365.723	-106.630
2368.164	-103.233
2370.605	-101.275
2373.047	-110.034
2375.488	-101.625
2377.930	-99.135
2380.371	-96.282
2382.812	-94.927
2385.254	-92.643
2387.695	-84.667
2390.137	-79.896
2392.578	-72.236
2395.020	-60.180
2397.461	-22.633
2399.902	-16.085
2402.344	-21.589
2404.785	-58.985
2407.227	-71.305
2409.668	-79.231
2412.109	-85.458
2414.551	-90.240
2416.992	-94.367
2419.434	-97.384
2421.875	-100.292
2424.316	-103.020
2426.758	-96.691
2429.199	-102.600
2431.641	-104.004
2434.082	-106.349
2436.523	-101.808
2438.965	-104.981
2441.406	-115.639
2443.848	-108.301
2446.289	-121.130
2448.730	-107.516
2451.172	-95.329
2453.613	-85.826
2456.055	-88.410
2458.496	-100.733
2460.937	-99.793
2463.379	-101.438
2465.820	-106.072
2468.262	-96.745
2470.703	-97.506
2473.145	-103.185
2475.586	-109.920
2478.027	-100.430
2480.469	-98.260
2482.910	-101.262
2485.352	-111.268
2487.793	-118.992
2490.234	-102.769
2492.676	-101.682
2495.117	-115.613
2497.559	-106.922
2500.000	-100.278
2502.441	-104.582
2504.883	-107.036
2507.324	-107.899
2509.766	-100.973
2512.207	-108.575
2514.648	-101.678
2517.090	-106.792
2519.531	-103.862
2521.973	-108.631
2524.414	-106.891
2526.855	-108.965
2529.297	-102.340
2531.738	-108.953
2534.180	-110.329
2536.621	-107.982
2539.062	-103.963
2541.504	-103.611
2543.945	-115.190
2546.387	-106.968
2548.828	-104.925
2551.270	-103.792
2553.711	-108.639
2556.152	-98.332
2558.594	-98.593
2561.035	-110.868
2563.477	-104.520
2565.918	-98.512
2568.359	-95.740
2570.801	-102.746
2573.242	-100.985
2575.684	-102.401
2578.125	-102.059
2580.566	-100.600
2583.008	-91.231
2585.449	-92.106
2587.891	-86.565
2590.332	-79.828
2592.773	-71.688
2595.215	-59.558
2597.656	-22.136
2600.098	-16.631
2602.539	-23.179
2604.980	-60.784
2607.422	-72.565
2609.863	-79.982
2612.305	-88.756
2614.746	-88.838
2617.187	-93.209
2619.629	-106.756
2622.070	-97.257
2624.512	-98.010
2626.953	-101.496
2629.395	-114.411
2631.836	-106.447
2634.277	-95.650
2636.719	-99.022
2639.160	-103.332
2641.602	-101.761
2644.043	-98.519
2646.484	-103.581
2648.926	-109.419
2651.367	-90.457
2653.809	-81.970
2656.250	-84.976
2658.691	-100.183
2661.133	-100.676
2663.574	-107.632
2666.016	-109.931
2668.457	-100.925
2670.898	-103.394
2673.340	-111.396
2675.781	-105.880
2678.223	-105.034
2680.664	-97.179
2683.105	-101.938
2685.547	-102.013
2687.988	-102.053
2690.430	-99.652
2692.871	-104.674
2695.312	-101.272
2697.754	-103.632
2700.195	-119.887
2702.637	-115.826
2705.078	-105.888
2707.520	-99.756
2709.961	-100.613
2712.402	-114.879
2714.844	-105.701
2717.285	-110.890
2719.727	-110.053
2722.168	-102.240
2724.609	-99.964
2727.051	-98.832
2729.492	-97.358
2731.934	-102.268
2734.375	-111.837
2736.816	-107.612
2739.258	-106.533
2741.699	-105.235
2744.141	-115.991
2746.582	-104.783
2749.023	-105.453
2751.465	-102.036
2753.906	-102.856
2756.348	-104.433
2758.789	-107.173
2761.230	-99.953
2763.672	-100.381
2766.113	-104.478
2768.555	-103.820
2770.996	-100.702
2773.437	-102.744
2775.879	-97.971
2778.320	-98.734
2780.762	-90.445
2783.203	-91.045
2785.645	-86.064
2788.086	-80.570
2790.527	-74.475
2792.969	-66.510
2795.410	-53.438
2797.852	-25.861
2800.293	-21.363
2802.734	-29.001
2805.176	-57.286
2807.617	-68.678
2810.059	-76.052
2812.500	-82.034
2814.941	-87.337
2817.383	-89.367
2819.824	-99.464
2822.266	-91.739
2824.707	-111.353
2827.148	-98.707
2829.590	-110.090
2832.031	-98.741
2834.473	-106.200
2836.914	-99.603
2839.355	-94.366
2841.797	-95.273
2844.238	-108.239
2846.680	-99.921
