Freq	Power
[Hz]	[dB]
0.000	-41.652
2.441	-44.664
4.883	-108.961
7.324	-105.401
9.766	-104.503
12.207	-107.115
14.648	-108.812
17.090	-107.860
19.531	-97.437
21.973	-93.135
24.414	-94.557
26.855	-106.778
29.297	-98.810
31.738	-99.512
34.180	-100.943
36.621	-97.348
39.062	-98.836
41.504	-102.991
43.945	-105.142
46.387	-107.750
48.828	-101.832
51.270	-101.878
53.711	-105.726
56.152	-127.621
58.594	-103.362
61.035	-107.551
63.477	-109.432
65.918	-120.280
68.359	-108.762
70.801	-113.556
73.242	-111.085
75.684	-101.153
78.125	-100.613
80.566	-102.766
83.008	-102.625
85.449	-93.463
87.891	-97.187
90.332	-104.796
92.773	-112.482
95.215	-103.867
97.656	-101.295
100.098	-97.405
102.539	-96.057
104.980	-102.955
107.422	-111.706
109.863	-102.541
112.305	-103.615
114.746	-113.748
117.187	-112.180
119.629	-106.696
122.070	-120.066
124.512	-102.858
126.953	-102.716
129.395	-106.102
131.836	-102.017
134.277	-107.475
136.719	-123.441
139.160	-119.810
141.602	-103.513
144.043	-101.034
146.484	-100.219
148.926	-107.343
151.367	-108.502
153.809	-107.285
156.250	-104.067
158.691	-100.017
161.133	-98.815
163.574	-100.759
166.016	-108.727
168.457	-116.504
170.898	-106.866
173.340	-98.775
175.781	-105.326
178.223	-102.194
180.664	-104.494
183.105	-107.216
185.547	-120.990
187.988	-107.537
190.430	-106.087
192.871	-99.071
195.312	-97.989
197.754	-100.986
200.195	-101.659
202.637	-101.754
205.078	-103.234
207.520	-104.782
209.961	-100.202
212.402	-99.500
214.844	-103.000
217.285	-108.743
219.727	-100.477
222.168	-96.037
224.609	-99.256
227.051	-109.287
229.492	-103.367
231.934	-102.183
234.375	-101.294
236.816	-105.140
239.258	-102.295
241.699	-96.329
244.141	-102.490
246.582	-107.298
249.023	-103.787
251.465	-105.791
253.906	-104.893
256.348	-101.102
258.789	-101.398
261.230	-91.563
263.672	-91.879
266.113	-107.703
268.555	-113.425
270.996	-109.161
273.437	-108.569
275.879	-113.611
278.320	-111.376
280.762	-108.757
283.203	-111.668
285.645	-102.319
288.086	-104.111
290.527	-112.336
292.969	-102.933
295.410	-105.098
297.852	-119.238
300.293	-109.651
302.734	-106.007
305.176	-114.528
307.617	-108.047
310.059	-104.541
312.500	-102.812
314.941	-101.194
317.383	-104.434
319.824	-107.998
322.266	-123.245
324.707	-112.412
327.148	-102.399
329.590	-105.800
332.031	-110.498
334.473	-104.364
336.914	-100.184
339.355	-119.536
341.797	-102.372
344.238	-102.131
346.680	-94.029
349.121	-93.929
351.562	-100.961
354.004	-110.303
356.445	-115.649
358.887	-109.050
361.328	-97.142
363.770	-99.494
366.211	-103.041
368.652	-101.461
371.094	-102.621
373.535	-95.972
375.977	-95.663
378.418	-112.603
380.859	-99.344
383.301	-96.787
385.742	-97.019
388.184	-101.017
390.625	-100.656
393.066	-104.395
395.508	-108.293
397.949	-107.908
400.391	-107.618
402.832	-105.664
405.273	-105.209
407.715	-112.614
410.156	-113.104
412.598	-106.810
415.039	-103.909
417.480	-105.403
419.922	-101.772
422.363	-114.051
424.805	-101.277
427.246	-96.380
429.687	-95.226
432.129	-95.762
434.570	-102.977
437.012	-108.927
439.453	-106.421
441.895	-104.221
444.336	-101.253
446.777	-100.092
449.219	-99.796
451.660	-102.273
454.102	-112.408
456.543	-120.434
458.984	-113.531
461.426	-103.868
463.867	-106.199
466.309	-100.851
468.750	-100.627
471.191	-112.356
473.633	-111.871
476.074	-104.048
478.516	-103.379
480.957	-107.213
483.398	-101.446
485.840	-102.439
488.281	-108.462
490.723	-105.877
493.164	-99.943
495.605	-101.497
498.047	-104.540
500.488	-104.011
502.930	-109.151
505.371	-102.121
507.812	-104.781
510.254	-100.159
512.695	-99.938
515.137	-110.078
517.578	-120.850
520.020	-116.462
522.461	-106.579
524.902	-107.248
527.344	-100.615
529.785	-102.124
532.227	-110.975
534.668	-114.427
537.109	-110.788
539.551	-114.607
541.992	-110.751
544.434	-117.921
546.875	-111.016
549.316	-101.899
551.758	-98.581
554.199	-103.943
556.641	-97.223
559.082	-95.817
561.523	-99.413
563.965	-103.548
566.406	-109.821
568.848	-114.498
571.289	-114.633
573.730	-108.215
576.172	-114.293
578.613	-108.914
581.055	-108.525
583.496	-102.605
585.937	-101.327
588.379	-114.813
590.820	-111.855
593.262	-102.757
595.703	-100.124
598.145	-105.781
600.586	-103.779
603.027	-98.300
605.469	-102.396
607.910	-93.161
610.352	-89.104
612.793	-97.060
615.234	-109.429
617.676	-112.150
620.117	-104.627
622.559	-100.762
625.000	-101.032
627.441	-105.628
629.883	-99.035
632.324	-95.940
634.766	-100.609
637.207	-102.075
639.648	-116.480
642.090	-100.187
644.531	-101.059
646.973	-106.867
649.414	-102.336
651.855	-103.078
654.297	-108.363
656.738	-116.842
659.180	-103.411
661.621	-106.165
664.062	-104.276
666.504	-106.008
668.945	-101.111
671.387	-98.580
673.828	-106.010
676.270	-124.733
678.711	-106.601
681.152	-102.265
683.594	-101.332
686.035	-101.240
688.477	-98.750
690.918	-99.272
693.359	-103.946
695.801	-101.197
698.242	-100.674
700.684	-100.979
703.125	-102.018
705.566	-110.071
708.008	-99.866
710.449	-98.068
712.891	-104.443
715.332	-100.614
717.773	-115.318
720.215	-99.997
722.656	-100.792
725.098	-114.054
727.539	-126.113
729.980	-100.092
732.422	-102.111
734.863	-104.700
737.305	-108.395
739.746	-103.651
742.187	-101.840
744.629	-100.193
747.070	-104.009
749.512	-100.714
751.953	-98.141
754.395	-100.081
756.836	-102.091
759.277	-103.566
761.719	-106.278
764.160	-108.943
766.602	-109.926
769.043	-111.283
771.484	-110.148
773.926	-110.765
776.367	-104.430
778.809	-97.574
781.250	-97.643
783.691	-105.087
786.133	-112.735
788.574	-107.892
791.016	-102.124
793.457	-104.022
795.898	-105.767
798.340	-108.641
800.781	-105.503
803.223	-97.148
805.664	-98.522
808.105	-100.982
810.547	-106.130
812.988	-109.677
815.430	-105.630
817.871	-105.127
820.312	-104.692
822.754	-101.386
825.195	-102.275
827.637	-102.672
830.078	-103.309
832.520	-105.836
834.961	-101.553
837.402	-99.511
839.844	-104.093
842.285	-98.350
844.727	-97.060
847.168	-97.440
849.609	-105.676
852.051	-105.127
854.492	-107.492
856.934	-105.276
859.375	-100.323
861.816	-98.883
864.258	-104.994
866.699	-114.922
869.141	-101.483
871.582	-100.573
874.023	-116.089
876.465	-104.615
878.906	-101.986
881.348	-108.846
883.789	-117.220
886.230	-107.359
888.672	-106.296
891.113	-101.431
893.555	-100.108
895.996	-106.417
898.437	-111.879
900.879	-113.507
903.320	-117.900
905.762	-110.036
908.203	-101.231
910.645	-103.758
913.086	-121.559
915.527	-114.157
917.969	-115.225
920.410	-110.464
922.852	-102.987
925.293	-105.129
927.734	-108.174
930.176	-106.344
932.617	-102.777
935.059	-103.104
937.500	-107.577
939.941	-102.147
942.383	-98.792
944.824	-102.236
947.266	-103.850
949.707	-108.182
952.148	-103.994
954.590	-98.296
957.031	-86.814
959.473	-90.852
961.914	-101.358
964.355	-103.648
966.797	-117.272
969.238	-127.060
971.680	-106.693
974.121	-109.947
976.562	-103.417
979.004	-105.159
981.445	-107.047
983.887	-107.412
986.328	-101.435
988.770	-101.643
991.211	-102.329
993.652	-101.942
996.094	-112.426
998.535	-105.513
1000.977	-98.323
1003.418	-102.532
1005.859	-106.680
1008.301	-102.778
1010.742	-112.123
1013.184	-104.489
1015.625	-102.466
1018.066	-108.024
1020.508	-99.539
1022.949	-97.849
1025.391	-107.661
1027.832	-107.610
1030.273	-109.372
1032.715	-97.327
1035.156	-99.506
1037.598	-111.225
1040.039	-120.845
1042.480	-115.995
1044.922	-107.218
1047.363	-104.620
1049.805	-112.010
1052.246	-101.414
1054.687	-101.428
1057.129	-103.778
1059.570	-107.964
1062.012	-118.088
1064.453	-114.516
1066.895	-124.375
1069.336	-109.433
1071.777	-107.171
1074.219	-131.507
1076.660	-112.748
1079.102	-110.794
1081.543	-98.371
1083.984	-99.453
1086.426	-101.962
1088.867	-101.720
1091.309	-112.254
1093.750	-93.950
1096.191	-93.408
1098.633	-97.124
1101.074	-99.315
1103.516	-100.567
1105.957	-102.789
1108.398	-109.129
1110.840	-99.937
1113.281	-99.476
1115.723	-104.091
1118.164	-101.938
1120.605	-99.332
1123.047	-100.413
1125.488	-99.912
1127.930	-97.509
1130.371	-100.255
1132.812	-101.190
1135.254	-107.434
1137.695	-115.619
1140.137	-107.319
1142.578	-114.681
1145.020	-103.932
1147.461	-100.919
1149.902	-116.163
1152.344	-109.283
1154.785	-102.610
1157.227	-101.032
1159.668	-117.110
1162.109	-102.484
1164.551	-105.854
1166.992	-108.590
1169.434	-110.627
1171.875	-108.312
1174.316	-104.841
1176.758	-108.434
1179.199	-102.512
1181.641	-106.492
1184.082	-110.979
1186.523	-109.348
1188.965	-105.795
1191.406	-106.516
1193.848	-105.819
1196.289	-105.664
1198.730	-108.414
1201.172	-117.211
1203.613	-110.347
1206.055	-111.320
1208.496	-113.665
1210.937	-107.932
1213.379	-105.284
1215.820	-114.132
1218.262	-104.586
1220.703	-109.677
1223.145	-113.228
1225.586	-116.644
1228.027	-110.678
1230.469	-103.581
1232.910	-100.113
1235.352	-98.264
1237.793	-104.399
1240.234	-105.584
1242.676	-102.360
1245.117	-104.128
1247.559	-106.752
1250.000	-106.711
1252.441	-107.759
1254.883	-103.620
1257.324	-104.168
1259.766	-101.220
1262.207	-104.357
1264.648	-111.163
1267.090	-118.888
1269.531	-103.635
1271.973	-98.853
1274.414	-99.603
1276.855	-95.838
1279.297	-95.443
1281.738	-106.533
1284.180	-105.399
1286.621	-100.360
1289.062	-101.582
1291.504	-104.876
1293.945	-101.352
1296.387	-101.687
1298.828	-118.026
1301.270	-102.019
1303.711	-86.239
1306.152	-86.191
1308.594	-105.949
1311.035	-100.855
1313.477	-101.147
1315.918	-103.697
1318.359	-103.893
1320.801	-115.737
1323.242	-103.023
1325.684	-104.162
1328.125	-104.134
1330.566	-102.629
1333.008	-108.907
1335.449	-101.963
1337.891	-99.873
1340.332	-103.642
1342.773	-100.341
1345.215	-100.747
1347.656	-103.009
1350.098	-108.551
1352.539	-104.748
1354.980	-102.236
1357.422	-107.489
1359.863	-106.061
1362.305	-98.968
1364.746	-97.497
1367.187	-103.380
1369.629	-109.994
1372.070	-104.198
1374.512	-112.437
1376.953	-102.701
1379.395	-107.256
1381.836	-106.187
1384.277	-103.687
1386.719	-108.087
1389.160	-101.477
1391.602	-107.638
1394.043	-104.754
1396.484	-107.785
1398.926	-107.690
1401.367	-112.265
1403.809	-106.510
1406.250	-113.534
1408.691	-107.783
1411.133	-101.851
1413.574	-97.889
1416.016	-98.375
1418.457	-100.158
1420.898	-109.754
1423.340	-95.481
1425.781	-101.843
1428.223	-106.253
1430.664	-100.865
1433.105	-101.232
1435.547	-100.589
1437.988	-98.351
1440.430	-99.677
1442.871	-100.831
1445.312	-99.324
1447.754	-99.727
1450.195	-102.978
1452.637	-118.734
1455.078	-110.517
1457.520	-104.576
1459.961	-105.461
1462.402	-102.909
1464.844	-104.674
1467.285	-104.724
1469.727	-109.107
1472.168	-103.609
1474.609	-96.668
1477.051	-104.012
1479.492	-123.156
1481.934	-103.271
1484.375	-98.910
1486.816	-101.814
1489.258	-109.658
1491.699	-110.323
1494.141	-115.755
1496.582	-108.783
1499.023	-102.608
1501.465	-101.975
1503.906	-104.902
1506.348	-127.614
1508.789	-119.937
1511.230	-105.617
1513.672	-99.586
1516.113	-99.520
1518.555	-102.180
1520.996	-107.709
1523.437	-99.901
1525.879	-100.798
1528.320	-105.391
1530.762	-106.863
1533.203	-118.223
1535.645	-110.118
1538.086	-105.225
1540.527	-108.579
1542.969	-115.903
1545.410	-104.580
1547.852	-102.008
1550.293	-104.002
1552.734	-104.119
1555.176	-105.502
1557.617	-105.779
1560.059	-101.598
1562.500	-101.119
1564.941	-100.107
1567.383	-114.545
1569.824	-97.574
1572.266	-97.823
1574.707	-103.149
1577.148	-102.802
1579.590	-102.105
1582.031	-107.378
1584.473	-104.106
1586.914	-107.598
1589.355	-115.296
1591.797	-105.620
1594.238	-103.071
1596.680	-105.868
1599.121	-106.836
1601.562	-113.193
1604.004	-116.252
1606.445	-105.476
1608.887	-100.032
1611.328	-104.371
1613.770	-108.023
1616.211	-106.389
1618.652	-100.355
1621.094	-97.613
1623.535	-97.956
1625.977	-101.446
1628.418	-100.846
1630.859	-95.098
1633.301	-102.992
1635.742	-107.513
1638.184	-98.265
1640.625	-101.248
1643.066	-121.855
1645.508	-114.038
1647.949	-102.664
1650.391	-85.088
1652.832	-80.619
1655.273	-87.403
1657.715	-108.691
1660.156	-102.802
1662.598	-112.134
1665.039	-99.505
1667.480	-106.263
1669.922	-106.766
1672.363	-104.014
1674.805	-107.434
1677.246	-108.871
1679.687	-98.647
1682.129	-97.464
1684.570	-102.160
1687.012	-95.583
1689.453	-100.402
1691.895	-108.437
1694.336	-101.222
1696.777	-98.641
1699.219	-102.539
1701.660	-105.198
1704.102	-121.639
1706.543	-112.329
1708.984	-105.194
1711.426	-105.022
1713.867	-102.237
1716.309	-100.438
1718.750	-105.212
1721.191	-111.424
1723.633	-112.998
1726.074	-105.964
1728.516	-100.705
1730.957	-100.919
1733.398	-116.153
1735.840	-104.824
1738.281	-103.975
1740.723	-114.020
1743.164	-103.945
1745.605	-102.663
1748.047	-99.812
1750.488	-97.572
1752.930	-101.653
1755.371	-109.696
1757.812	-100.353
1760.254	-97.497
1762.695	-102.974
1765.137	-110.265
1767.578	-97.075
1770.020	-99.394
1772.461	-110.632
1774.902	-106.941
1777.344	-103.297
1779.785	-99.453
1782.227	-100.153
1784.668	-102.791
1787.109	-103.983
1789.551	-106.212
1791.992	-115.205
1794.434	-108.893
1796.875	-107.423
1799.316	-103.132
1801.758	-98.986
1804.199	-97.797
1806.641	-105.063
1809.082	-103.791
1811.523	-103.021
1813.965	-101.973
1816.406	-106.202
1818.848	-102.078
1821.289	-99.455
1823.730	-103.721
1826.172	-105.108
1828.613	-113.077
1831.055	-105.930
1833.496	-97.288
1835.937	-97.723
1838.379	-107.339
1840.820	-103.549
1843.262	-105.904
1845.703	-98.302
1848.145	-103.320
1850.586	-102.184
1853.027	-108.092
1855.469	-102.390
1857.910	-103.729
1860.352	-98.549
1862.793	-98.676
1865.234	-97.189
1867.676	-96.972
1870.117	-106.238
1872.559	-101.563
1875.000	-102.199
1877.441	-101.016
1879.883	-104.232
1882.324	-102.377
1884.766	-103.466
1887.207	-109.073
1889.648	-106.448
1892.090	-98.097
1894.531	-99.647
1896.973	-96.555
1899.414	-95.782
1901.855	-102.245
1904.297	-133.325
1906.738	-98.185
1909.180	-107.500
1911.621	-96.411
1914.062	-99.923
1916.504	-97.632
1918.945	-104.823
1921.387	-103.333
1923.828	-93.278
1926.270	-100.557
1928.711	-92.757
1931.152	-97.471
1933.594	-96.544
1936.035	-92.624
1938.477	-88.758
1940.918	-107.745
1943.359	-87.395
1945.801	-88.688
1948.242	-89.861
1950.684	-85.378
1953.125	-86.640
1955.566	-83.101
1958.008	-83.577
1960.449	-80.987
1962.891	-79.614
1965.332	-77.300
1967.773	-76.180
1970.215	-73.385
1972.656	-71.602
1975.098	-68.956
1977.539	-66.250
1979.980	-63.308
1982.422	-59.895
1984.863	-55.857
1987.305	-51.207
1989.746	-45.464
1992.187	-37.983
1994.629	-27.097
1997.070	-2.958
1999.512	5.808
2001.953	2.270
2004.395	-20.716
2006.836	-34.239
2009.277	-42.753
2011.719	-49.088
2014.160	-54.116
2016.602	-58.351
2019.043	-61.995
2021.484	-65.114
2023.926	-67.856
2026.367	-70.637
2028.809	-72.995
2031.250	-74.649
2033.691	-77.279
2036.133	-78.906
2038.574	-79.298
2041.016	-81.976
2043.457	-83.851
2045.898	-85.107
2048.340	-86.602
2050.781	-87.532
2053.223	-88.621
2055.664	-91.597
2058.105	-87.852
2060.547	-96.152
2062.988	-91.887
2065.430	-94.282
2067.871	-96.831
2070.312	-94.705
2072.754	-93.928
2075.195	-117.200
2077.637	-95.165
2080.078	-95.803
2082.520	-111.518
2084.961	-98.486
2087.402	-105.082
2089.844	-101.020
2092.285	-100.315
2094.727	-100.280
2097.168	-109.169
2099.609	-101.558
2102.051	-99.447
2104.492	-104.241
2106.934	-105.600
2109.375	-96.495
2111.816	-101.762
2114.258	-100.408
2116.699	-110.840
2119.141	-101.266
2121.582	-101.064
2124.023	-98.128
2126.465	-103.456
2128.906	-99.400
2131.348	-103.459
2133.789	-103.314
2136.230	-100.607
2138.672	-96.892
2141.113	-99.510
2143.555	-105.049
2145.996	-100.731
2148.437	-109.710
2150.879	-103.462
2153.320	-100.414
2155.762	-109.653
2158.203	-105.850
2160.645	-108.751
2163.086	-125.355
2165.527	-104.171
2167.969	-99.858
2170.410	-95.095
2172.852	-99.471
2175.293	-101.900
2177.734	-101.816
2180.176	-101.261
2182.617	-103.415
2185.059	-101.990
2187.500	-98.268
2189.941	-96.364
2192.383	-105.707
2194.824	-116.767
2197.266	-108.510
2199.707	-102.992
2202.148	-104.868
2204.590	-106.097
2207.031	-100.012
2209.473	-102.262
2211.914	-104.012
2214.355	-105.052
2216.797	-122.730
2219.238	-112.547
2221.680	-116.993
2224.121	-109.449
2226.562	-113.684
2229.004	-102.987
2231.445	-98.502
2233.887	-99.862
2236.328	-104.408
2238.770	-107.421
2241.211	-122.371
2243.652	-113.169
2246.094	-110.163
2248.535	-103.892
2250.977	-98.870
2253.418	-102.724
2255.859	-103.481
2258.301	-115.552
2260.742	-102.922
2263.184	-100.300
2265.625	-98.393
2268.066	-105.081
2270.508	-102.472
2272.949	-98.113
2275.391	-103.280
2277.832	-107.902
2280.273	-101.321
2282.715	-98.659
2285.156	-97.853
2287.598	-111.298
2290.039	-99.688
2292.480	-103.443
2294.922	-109.187
2297.363	-107.325
2299.805	-141.024
2302.246	-107.883
2304.687	-106.891
2307.129	-109.185
2309.570	-103.431
2312.012	-99.728
2314.453	-104.076
2316.895	-106.432
2319.336	-106.891
2321.777	-122.336
2324.219	-107.939
2326.660	-102.079
2329.102	-106.037
2331.543	-108.749
2333.984	-106.054
2336.426	-98.590
2338.867	-103.720
2341.309	-102.481
2343.750	-95.833
2346.191	-82.266
2348.633	-81.863
2351.074	-94.946
2353.516	-99.380
2355.957	-104.516
2358.398	-104.208
2360.840	-106.797
2363.281	-108.311
2365.723	-112.304
2368.164	-111.619
2370.605	-102.255
2373.047	-99.947
2375.488	-103.136
2377.930	-106.579
2380.371	-110.660
2382.812	-105.433
2385.254	-96.914
2387.695	-99.349
2390.137	-103.964
2392.578	-107.192
2395.020	-107.868
2397.461	-103.917
2399.902	-112.212
2402.344	-108.882
2404.785	-104.591
2407.227	-102.366
2409.668	-110.136
2412.109	-114.842
2414.551	-105.497
2416.992	-100.481
2419.434	-107.902
2421.875	-102.235
2424.316	-104.668
2426.758	-104.410
2429.199	-105.433
2431.641	-107.551
2434.082	-105.264
2436.523	-108.031
2438.965	-116.645
2441.406	-109.368
2443.848	-102.139
2446.289	-100.601
2448.730	-101.467
2451.172	-97.075
2453.613	-97.084
2456.055	-109.396
2458.496	-107.769
2460.937	-106.172
2463.379	-108.058
2465.820	-108.098
2468.262	-114.953
2470.703	-104.139
2473.145	-102.322
2475.586	-101.580
2478.027	-106.074
2480.469	-105.193
2482.910	-114.319
2485.352	-109.736
2487.793	-107.275
2490.234	-100.374
2492.676	-95.575
2495.117	-95.611
2497.559	-99.256
2500.000	-104.932
2502.441	-101.422
2504.883	-101.892
2507.324	-104.349
2509.766	-107.648
2512.207	-102.173
2514.648	-101.758
2517.090	-98.826
2519.531	-105.504
2521.973	-119.605
2524.414	-102.131
2526.855	-99.313
2529.297	-99.973
2531.738	-102.529
2534.180	-101.377
2536.621	-102.014
2539.062	-108.531
2541.504	-103.052
2543.945	-103.706
2546.387	-107.568
2548.828	-104.180
2551.270	-102.363
2553.711	-104.501
2556.152	-100.601
2558.594	-99.057
2561.035	-102.959
2563.477	-111.041
2565.918	-126.539
2568.359	-104.687
2570.801	-104.868
2573.242	-112.929
2575.684	-101.767
2578.125	-102.185
2580.566	-100.838
2583.008	-104.792
2585.449	-108.403
2587.891	-106.673
2590.332	-109.467
2592.773	-110.412
2595.215	-102.120
2597.656	-99.940
2600.098	-104.379
2602.539	-110.398
2604.980	-103.808
2607.422	-103.813
2609.863	-107.745
2612.305	-114.307
2614.746	-111.050
2617.187	-108.828
2619.629	-118.563
2622.070	-117.092
2624.512	-113.159
2626.953	-117.949
2629.395	-105.894
2631.836	-105.777
2634.277	-105.332
2636.719	-105.392
2639.160	-111.816
2641.602	-111.520
2644.043	-107.061
2646.484	-98.744
2648.926	-98.500
2651.367	-93.048
2653.809	-86.884
2656.250	-92.826
2658.691	-100.885
2661.133	-102.990
2663.574	-105.737
2666.016	-118.761
2668.457	-103.535
2670.898	-109.042
2673.340	-98.626
2675.781	-93.257
2678.223	-95.450
2680.664	-106.748
2683.105	-118.465
2685.547	-105.310
2687.988	-102.822
2690.430	-105.688
2692.871	-88.117
2695.312	-84.643
2697.754	-94.662
2700.195	-99.746
2702.637	-99.648
2705.078	-102.867
2707.520	-116.752
2709.961	-107.529
2712.402	-109.684
2714.844	-104.905
2717.285	-103.297
2719.727	-105.496
2722.168	-99.825
2724.609	-102.497
2727.051	-112.302
2729.492	-107.243
2731.934	-104.708
2734.375	-104.050
2736.816	-103.753
2739.258	-111.115
2741.699	-107.023
2744.141	-99.522
2746.582	-100.904
2749.023	-104.176
2751.465	-103.789
2753.906	-107.740
2756.348	-97.347
2758.789	-100.487
2761.230	-101.220
2763.672	-96.117
2766.113	-95.569
2768.555	-97.551
2770.996	-104.965
2773.437	-112.106
2775.879	-115.460
2778.320	-104.594
2780.762	-108.297
2783.203	-102.997
2785.645	-106.842
2788.086	-115.774
2790.527	-102.955
2792.969	-108.733
2795.410	-106.439
2797.852	-107.240
2800.293	-107.249
2802.734	-114.863
2805.176	-109.893
